2theta	 chi	   x	   y	   I
92.04979705	0.608299970	1041.539794	1083.341064	157.5919952
109.7446975	-30.6639003	1558.554565	753.0521240	143.2088165
109.6410980	32.49309921	501.7994079	753.0537109	143.1178283
111.4031982	-19.3596992	1351.014892	755.6118774	139.2631530
111.3983993	20.57859992	726.4785156	755.9041137	139.2592773
128.9196929	0.611999988	1038.309204	419.7181091	124.9657974
52.41270065	-19.0301990	1349.842041	1810.717529	116.6316757
52.40800094	20.24270057	737.9907226	1819.036376	116.6218795
64.94809722	0.886300027	1039.442504	1515.126953	110.2411804
93.03839874	-46.8608016	1966.887451	1043.003295	107.4347000
93.02799987	48.07500076	94.24179840	1050.601196	107.4254684
135.9503936	-19.7000007	1354.343017	167.9199981	105.7162933
135.9454956	20.92560005	717.2946166	163.5933074	105.7145004
101.8180007	0.915600001	1036.218139	934.3505249	100.7880630
127.7340011	-24.9416007	1447.237548	378.2254943	100.3381423
127.6475982	26.83230018	612.2534179	372.6588134	100.3010025
106.7631988	-12.9678001	1247.365478	847.5418701	98.44787597
106.7599029	14.18620014	832.3662109	848.2069091	98.44573974
86.11489868	-25.0366001	1452.099365	1176.469726	94.55790710
86.10880279	26.25180053	627.7177734	1181.158447	94.55254364
67.95400238	-12.8121004	1247.616333	1469.415283	94.21057128
67.95069885	14.02600002	838.1817016	1473.229248	94.20657348
114.7373962	-25.3087997	1455.116088	674.0914916	86.93717193
114.7312011	26.52790069	619.6832885	673.6400756	86.93414306
96.53240203	-35.3156013	1658.664062	990.6112060	85.10087585
96.52410125	36.53120040	413.9930114	994.8303833	85.09537506
90.28659820	-34.4505004	1639.799316	1106.017089	84.03177642
90.17220306	36.24100112	421.4296875	1113.831176	83.94825744
127.6156005	-13.1269998	1248.081054	432.7540893	82.39559936
127.6121978	14.35019969	827.5686035	431.2749938	82.39444732
118.0782012	0.937200009	1034.558349	655.5563964	78.73984527
118.7032012	-35.6492004	1664.618652	531.8231201	75.73847198
118.6949005	36.86809921	403.2835998	528.9152221	75.73519897
103.8378982	-9.64200019	1195.717529	898.7097778	75.68166351
103.8354034	10.86009979	884.9780883	899.4038085	75.68040466
135.8267974	-20.8782005	1374.439575	164.7115020	75.35215759
135.7532043	22.81369972	684.3366699	157.5193023	75.33251953
74.91470336	-9.55280017	1196.344604	1347.917358	74.59646606
74.91220092	10.76739978	888.7236938	1350.316162	74.59435272
131.1463928	-25.5863990	1458.684082	278.7918090	72.80526733
131.1401977	26.80960083	612.1226196	274.1953125	72.80346679
58.79600143	-34.9872016	1653.938110	1745.118286	72.67974853
58.78779983	36.19969940	426.3244934	1760.838012	72.67056274
114.6696014	0.610099971	1039.770874	719.3571166	72.30872344
91.31990051	-13.0887002	1250.340820	1092.768188	70.20647430
91.27210235	14.89640045	822.2977905	1095.389160	70.17785644
63.03990173	-14.7257995	1278.402587	1564.091430	69.65233612
62.98669815	16.49379920	798.9902954	1571.323730	69.59959411
97.48560333	-27.8738002	1504.425048	984.2069702	69.02954864
97.47889709	29.09009933	572.3552246	987.2858886	69.02597808
121.7665023	-9.73289966	1195.669555	573.2802124	66.86061096
121.7639999	10.95460033	881.8386230	572.7205810	66.85975646
68.86750030	-27.6569995	1502.189453	1486.273071	64.48355865
68.86090087	28.87050056	579.5844116	1495.084350	64.47806549
55.17990112	0.606500029	1044.567504	1710.554199	64.14470672
80.13569641	-35.1506996	1656.017333	1293.681030	63.03953933
80.12750244	36.36479949	419.7257995	1302.534912	63.03413391
116.0171966	-28.0937004	1507.331054	636.3024902	63.01328277
116.0103988	29.31279945	565.9382934	635.3532714	63.01094055
126.8756027	0.953700006	1033.416748	469.0390014	62.99153137
103.2070999	-35.3984985	1660.092041	863.8005981	62.66932678
103.1987991	36.61489868	411.2601928	866.0664062	62.66575241
101.8604965	-7.61600017	1164.787597	931.4893798	61.31963729
101.8584976	8.833900451	916.4412841	932.1444091	61.31877136
78.79699707	-7.55859994	1165.509765	1284.973266	61.02599716
78.79499816	8.773599624	919.1561889	1286.701049	61.02468872
107.2276000	-11.7537002	1228.258789	841.0836181	60.86537933
107.1841964	13.59420013	841.7523803	841.6851196	60.84841918
89.76879882	-15.4605998	1288.295654	1116.495239	60.61336898
89.76490020	16.67659950	793.6091918	1118.935302	60.61131668
120.7900009	-27.5433006	1496.386352	534.1569824	59.50592422
120.6958007	29.40570068	563.4968261	530.5128173	59.47810363
87.78189849	-41.5141983	1810.957153	1154.819946	58.70835876
87.77239990	42.72850036	258.0014953	1163.271606	58.70332717
108.7988967	-15.5710000	1288.769775	809.2827758	57.76940917
108.7949981	16.78969955	790.1184082	809.8464965	57.76797103
133.4358062	-9.82530021	1195.823242	286.8127136	57.61998748
133.4331970	11.05070018	878.8696899	285.1283874	57.61941528
97.58180236	-22.8351993	1411.854736	988.2708740	57.57576370
97.57620239	24.05190086	666.8953247	990.7662963	57.57327651
80.40879821	-35.8923988	1672.779052	1290.099121	57.16810989
80.29039764	37.66889953	389.0802917	1302.717041	57.09818649
106.8679962	-41.7752990	1816.725830	761.0203857	56.50936889
106.8584976	42.99160003	248.0724029	761.8677978	56.50589370
117.5082015	-7.67439985	1164.458740	661.8862915	55.97471237
117.5062026	8.895099639	914.1361083	661.7136840	55.97411727
87.56800079	0.902199983	1037.456542	1150.564819	55.72480392
74.62789916	-22.6844005	1410.718139	1368.026245	55.66224288
74.62239837	23.89859962	671.7805175	1373.987548	55.65870666
128.3941955	-28.3166999	1510.508422	337.6908874	55.34978103
128.3874053	29.53870010	559.7211303	333.2182006	55.34818267
138.4468994	0.613900005	1036.958251	143.3553924	53.76904678
98.16580200	-33.1034011	1610.070678	964.2396850	53.61283493
113.5384979	-22.9878997	1413.422607	705.6591186	53.58066177
113.5328979	24.20700073	662.5117797	705.5466918	53.57894134
98.05519866	34.90750122	450.7659912	968.6666259	53.56797790
61.97349929	-15.3515996	1288.543701	1586.387695	53.14767074
61.96960067	16.56489944	797.9387817	1591.676025	53.14467620
121.9719009	-15.6829004	1289.500122	555.5664062	52.12087631
121.9680023	16.90439987	786.8837890	554.5593872	52.11986923
132.3282012	0.966700017	1032.557739	330.6433105	52.08900070
117.0535964	-10.6455001	1210.217651	666.6646118	51.92185974
117.0139007	12.51329994	857.9251708	666.1163940	51.91086578
83.67220306	-20.1189994	1365.748046	1213.912231	51.76235580
83.60130310	21.91119956	706.0189208	1219.440185	51.72658157
100.4429016	-6.25559997	1144.192871	954.3314208	51.47983932
100.4412002	7.473199844	937.3740844	954.9351196	51.47920608
81.25900268	-6.21560001	1144.920410	1246.344360	51.43003845
81.25730133	7.430799961	939.4841918	1247.686279	51.42916488
90.50229644	-35.2495002	1657.564941	1101.923217	51.30973434
90.49400329	36.46450042	416.2309875	1107.849243	51.30607604
107.2483978	-46.4280014	1952.209106	722.6519165	51.01699829
60.20370101	-41.2556991	1806.007690	1763.543212	50.72848892
108.3099975	0.609499990	1040.308349	829.7634277	50.20788574
128.4445953	-7.73350000	1164.290039	424.6008911	49.78738403
128.4425048	8.957200050	911.9794921	423.6889038	49.78696060
106.8040008	-35.4483985	1660.971801	792.6074218	49.35807037
106.7957000	36.66529846	409.6445922	793.7714843	49.35541915
97.38230133	-19.2486991	1350.133789	994.7407226	49.17965698
97.37760162	20.46549987	729.7249145	996.8668823	49.17786788
60.86180114	-21.8561992	1397.279296	1627.548461	49.02388381
60.78530120	23.61930084	678.2495727	1639.290649	48.96821594
69.42990112	0.607100009	1043.245483	1436.09375	48.91597366
78.24490356	-19.1389007	1349.557373	1301.661865	48.29009628
78.24009704	20.35350036	733.3171997	1306.120971	48.28762435
124.8682022	-23.1424007	1415.183959	460.7596130	48.24995040
124.8626022	24.36400032	658.2957153	458.3541870	48.24871444
98.51119995	-18.6166000	1339.471679	977.0277099	48.00622940
114.2908020	-6.29600000	1143.752441	723.3947143	48.00090789
114.2891006	7.516099929	935.5617065	723.4089965	48.00044631
98.44509887	20.43429946	730.1614990	979.4768066	47.98238754
95.29850006	-40.4309005	1782.0	1005.910583	47.72372436
95.28929901	41.64599990	286.5802001	1011.272888	47.72021484
67.97859954	-35.0523986	1654.660522	1535.000854	47.33994674
67.97039794	36.26559829	423.5086975	1547.526611	47.33490371
102.5250015	-25.1720008	1453.497314	901.2573242	46.48978805
102.5187988	26.38920021	623.5803833	903.1434936	46.48780059
131.4013977	-15.7964000	1290.357055	324.8450927	46.40291595
131.3973999	17.02059936	783.7420043	322.3876037	46.40220642
76.21209716	-40.2243003	1777.901245	1386.374633	46.35299301
76.20290374	41.43780136	294.6184082	1398.728271	46.34824371
120.1222000	0.610700011	1039.264038	615.3555297	46.02476882

# Cor file generated by LaueTools Polygrains Simulation Software
# File created at Wed May 31 14:39:49 2017 by by ParametricLaueSimulator.py
# Calibration parameters(XMAS)
# dd     :   69.179
# xcen     :   1050.81
# ycen     :   1115.59
# xbet     :   0.104
# xgam     :   -0.273